Time	y(t)
0.0000	0.500000
0.0010	0.500250
0.0020	0.500500
0.0030	0.500750
0.0040	0.501000
0.0050	0.501250
0.0060	0.501500
0.0070	0.501750
0.0080	0.502000
0.0090	0.502250
0.0100	0.502500
0.0110	0.502750
0.0120	0.503000
0.0130	0.503250
0.0140	0.503500
0.0150	0.503750
0.0160	0.504000
0.0170	0.504250
0.0180	0.504500
0.0190	0.504750
0.0200	0.505000
0.0210	0.505250
0.0220	0.505500
0.0230	0.505750
0.0240	0.506000
0.0250	0.506250
0.0260	0.506500
0.0270	0.506750
0.0280	0.507000
0.0290	0.507249
0.0300	0.507499
0.0310	0.507749
0.0320	0.507999
0.0330	0.508249
0.0340	0.508499
0.0350	0.508749
0.0360	0.508999
0.0370	0.509249
0.0380	0.509499
0.0390	0.509749
0.0400	0.509999
0.0410	0.510249
0.0420	0.510498
0.0430	0.510748
0.0440	0.510998
0.0450	0.511248
0.0460	0.511498
0.0470	0.511748
0.0480	0.511998
0.0490	0.512248
0.0500	0.512497
0.0510	0.512747
0.0520	0.512997
0.0530	0.513247
0.0540	0.513497
0.0550	0.513747
0.0560	0.513996
0.0570	0.514246
0.0580	0.514496
0.0590	0.514746
0.0600	0.514996
0.0610	0.515245
0.0620	0.515495
0.0630	0.515745
0.0640	0.515995
0.0650	0.516244
0.0660	0.516494
0.0670	0.516744
0.0680	0.516993
0.0690	0.517243
0.0700	0.517493
0.0710	0.517743
0.0720	0.517992
0.0730	0.518242
0.0740	0.518492
0.0750	0.518741
0.0760	0.518991
0.0770	0.519240
0.0780	0.519490
0.0790	0.519740
0.0800	0.519989
0.0810	0.520239
0.0820	0.520489
0.0830	0.520738
0.0840	0.520988
0.0850	0.521237
0.0860	0.521487
0.0870	0.521736
0.0880	0.521986
0.0890	0.522235
0.0900	0.522485
0.0910	0.522734
0.0920	0.522984
0.0930	0.523233
0.0940	0.523483
0.0950	0.523732
0.0960	0.523982
0.0970	0.524231
0.0980	0.524480
0.0990	0.524730
0.1000	0.524979
0.1010	0.525229
0.1020	0.525478
0.1030	0.525727
0.1040	0.525977
0.1050	0.526226
0.1060	0.526475
0.1070	0.526725
0.1080	0.526974
0.1090	0.527223
0.1100	0.527472
0.1110	0.527722
0.1120	0.527971
0.1130	0.528220
0.1140	0.528469
0.1150	0.528718
0.1160	0.528968
0.1170	0.529217
0.1180	0.529466
0.1190	0.529715
0.1200	0.529964
0.1210	0.530213
0.1220	0.530462
0.1230	0.530711
0.1240	0.530960
0.1250	0.531209
0.1260	0.531458
0.1270	0.531707
0.1280	0.531956
0.1290	0.532205
0.1300	0.532454
0.1310	0.532703
0.1320	0.532952
0.1330	0.533201
0.1340	0.533450
0.1350	0.533699
0.1360	0.533948
0.1370	0.534197
0.1380	0.534445
0.1390	0.534694
0.1400	0.534943
0.1410	0.535192
0.1420	0.535440
0.1430	0.535689
0.1440	0.535938
0.1450	0.536187
0.1460	0.536435
0.1470	0.536684
0.1480	0.536933
0.1490	0.537181
0.1500	0.537430
0.1510	0.537678
0.1520	0.537927
0.1530	0.538176
0.1540	0.538424
0.1550	0.538673
0.1560	0.538921
0.1570	0.539170
0.1580	0.539418
0.1590	0.539666
0.1600	0.539915
0.1610	0.540163
0.1620	0.540412
0.1630	0.540660
0.1640	0.540908
0.1650	0.541157
0.1660	0.541405
0.1670	0.541653
0.1680	0.541901
0.1690	0.542150
0.1700	0.542398
0.1710	0.542646
0.1720	0.542894
0.1730	0.543142
0.1740	0.543391
0.1750	0.543639
0.1760	0.543887
0.1770	0.544135
0.1780	0.544383
0.1790	0.544631
0.1800	0.544879
0.1810	0.545127
0.1820	0.545375
0.1830	0.545623
0.1840	0.545871
0.1850	0.546119
0.1860	0.546366
0.1870	0.546614
0.1880	0.546862
0.1890	0.547110
0.1900	0.547358
0.1910	0.547605
0.1920	0.547853
0.1930	0.548101
0.1940	0.548348
0.1950	0.548596
0.1960	0.548844
0.1970	0.549091
0.1980	0.549339
0.1990	0.549586
0.2000	0.549834
0.2010	0.550082
0.2020	0.550329
0.2030	0.550576
0.2040	0.550824
0.2050	0.551071
0.2060	0.551319
0.2070	0.551566
0.2080	0.551813
0.2090	0.552061
0.2100	0.552308
0.2110	0.552555
0.2120	0.552802
0.2130	0.553050
0.2140	0.553297
0.2150	0.553544
0.2160	0.553791
0.2170	0.554038
0.2180	0.554285
0.2190	0.554532
0.2200	0.554779
0.2210	0.555026
0.2220	0.555273
0.2230	0.555520
0.2240	0.555767
0.2250	0.556014
0.2260	0.556261
0.2270	0.556508
0.2280	0.556754
0.2290	0.557001
0.2300	0.557248
0.2310	0.557495
0.2320	0.557741
0.2330	0.557988
0.2340	0.558235
0.2350	0.558481
0.2360	0.558728
0.2370	0.558974
0.2380	0.559221
0.2390	0.559467
0.2400	0.559714
0.2410	0.559960
0.2420	0.560206
0.2430	0.560453
0.2440	0.560699
0.2450	0.560945
0.2460	0.561192
0.2470	0.561438
0.2480	0.561684
0.2490	0.561930
0.2500	0.562177
0.2510	0.562423
0.2520	0.562669
0.2530	0.562915
0.2540	0.563161
0.2550	0.563407
0.2560	0.563653
0.2570	0.563899
0.2580	0.564145
0.2590	0.564390
0.2600	0.564636
0.2610	0.564882
0.2620	0.565128
0.2630	0.565374
0.2640	0.565619
0.2650	0.565865
0.2660	0.566111
0.2670	0.566356
0.2680	0.566602
0.2690	0.566847
0.2700	0.567093
0.2710	0.567338
0.2720	0.567584
0.2730	0.567829
0.2740	0.568075
0.2750	0.568320
0.2760	0.568565
0.2770	0.568811
0.2780	0.569056
0.2790	0.569301
0.2800	0.569546
0.2810	0.569791
0.2820	0.570036
0.2830	0.570282
0.2840	0.570527
0.2850	0.570772
0.2860	0.571017
0.2870	0.571262
0.2880	0.571506
0.2890	0.571751
0.2900	0.571996
0.2910	0.572241
0.2920	0.572486
0.2930	0.572730
0.2940	0.572975
0.2950	0.573220
0.2960	0.573464
0.2970	0.573709
0.2980	0.573954
0.2990	0.574198
0.3000	0.574443
0.3010	0.574687
0.3020	0.574931
0.3030	0.575176
0.3040	0.575420
0.3050	0.575664
0.3060	0.575909
0.3070	0.576153
0.3080	0.576397
0.3090	0.576641
0.3100	0.576885
0.3110	0.577129
0.3120	0.577373
0.3130	0.577617
0.3140	0.577861
0.3150	0.578105
0.3160	0.578349
0.3170	0.578593
0.3180	0.578837
0.3190	0.579081
0.3200	0.579324
0.3210	0.579568
0.3220	0.579812
0.3230	0.580055
0.3240	0.580299
0.3250	0.580542
0.3260	0.580786
0.3270	0.581029
0.3280	0.581273
0.3290	0.581516
0.3300	0.581759
0.3310	0.582003
0.3320	0.582246
0.3330	0.582489
0.3340	0.582732
0.3350	0.582975
0.3360	0.583219
0.3370	0.583462
0.3380	0.583705
0.3390	0.583948
0.3400	0.584191
0.3410	0.584433
0.3420	0.584676
0.3430	0.584919
0.3440	0.585162
0.3450	0.585405
0.3460	0.585647
0.3470	0.585890
0.3480	0.586133
0.3490	0.586375
0.3500	0.586618
0.3510	0.586860
0.3520	0.587102
0.3530	0.587345
0.3540	0.587587
0.3550	0.587830
0.3560	0.588072
0.3570	0.588314
0.3580	0.588556
0.3590	0.588798
0.3600	0.589040
0.3610	0.589282
0.3620	0.589524
0.3630	0.589766
0.3640	0.590008
0.3650	0.590250
0.3660	0.590492
0.3670	0.590734
0.3680	0.590976
0.3690	0.591217
0.3700	0.591459
0.3710	0.591701
0.3720	0.591942
0.3730	0.592184
0.3740	0.592425
0.3750	0.592667
0.3760	0.592908
0.3770	0.593149
0.3780	0.593391
0.3790	0.593632
0.3800	0.593873
0.3810	0.594114
0.3820	0.594355
0.3830	0.594596
0.3840	0.594837
0.3850	0.595078
0.3860	0.595319
0.3870	0.595560
0.3880	0.595801
0.3890	0.596042
0.3900	0.596283
0.3910	0.596523
0.3920	0.596764
0.3930	0.597005
0.3940	0.597245
0.3950	0.597486
0.3960	0.597726
0.3970	0.597967
0.3980	0.598207
0.3990	0.598447
0.4000	0.598688
0.4010	0.598928
0.4020	0.599168
0.4030	0.599408
0.4040	0.599648
0.4050	0.599888
0.4060	0.600128
0.4070	0.600368
0.4080	0.600608
0.4090	0.600848
0.4100	0.601088
0.4110	0.601328
0.4120	0.601567
0.4130	0.601807
0.4140	0.602047
0.4150	0.602286
0.4160	0.602526
0.4170	0.602765
0.4180	0.603005
0.4190	0.603244
0.4200	0.603483
0.4210	0.603723
0.4220	0.603962
0.4230	0.604201
0.4240	0.604440
0.4250	0.604679
0.4260	0.604918
0.4270	0.605157
0.4280	0.605396
0.4290	0.605635
0.4300	0.605874
0.4310	0.606112
0.4320	0.606351
0.4330	0.606590
0.4340	0.606828
0.4350	0.607067
0.4360	0.607305
0.4370	0.607544
0.4380	0.607782
0.4390	0.608021
0.4400	0.608259
0.4410	0.608497
0.4420	0.608735
0.4430	0.608974
0.4440	0.609212
0.4450	0.609450
0.4460	0.609688
0.4470	0.609926
0.4480	0.610164
0.4490	0.610401
0.4500	0.610639
0.4510	0.610877
0.4520	0.611115
0.4530	0.611352
0.4540	0.611590
0.4550	0.611827
0.4560	0.612065
0.4570	0.612302
0.4580	0.612540
0.4590	0.612777
0.4600	0.613014
0.4610	0.613251
0.4620	0.613489
0.4630	0.613726
0.4640	0.613963
0.4650	0.614200
0.4660	0.614437
0.4670	0.614673
0.4680	0.614910
0.4690	0.615147
0.4700	0.615384
0.4710	0.615620
0.4720	0.615857
0.4730	0.616094
0.4740	0.616330
0.4750	0.616567
0.4760	0.616803
0.4770	0.617039
0.4780	0.617275
0.4790	0.617512
0.4800	0.617748
0.4810	0.617984
0.4820	0.618220
0.4830	0.618456
0.4840	0.618692
0.4850	0.618928
0.4860	0.619164
0.4870	0.619399
0.4880	0.619635
0.4890	0.619871
0.4900	0.620106
0.4910	0.620342
0.4920	0.620577
0.4930	0.620813
0.4940	0.621048
0.4950	0.621284
0.4960	0.621519
0.4970	0.621754
0.4980	0.621989
0.4990	0.622224
0.5000	0.622459
0.5010	0.622694
0.5020	0.622929
0.5030	0.623164
0.5040	0.623399
0.5050	0.623634
0.5060	0.623868
0.5070	0.624103
0.5080	0.624338
0.5090	0.624572
0.5100	0.624806
0.5110	0.625041
0.5120	0.625275
0.5130	0.625509
0.5140	0.625744
0.5150	0.625978
0.5160	0.626212
0.5170	0.626446
0.5180	0.626680
0.5190	0.626914
0.5200	0.627148
0.5210	0.627382
0.5220	0.627615
0.5230	0.627849
0.5240	0.628083
0.5250	0.628316
0.5260	0.628550
0.5270	0.628783
0.5280	0.629017
0.5290	0.629250
0.5300	0.629483
0.5310	0.629716
0.5320	0.629949
0.5330	0.630183
0.5340	0.630416
0.5350	0.630649
0.5360	0.630881
0.5370	0.631114
0.5380	0.631347
0.5390	0.631580
0.5400	0.631812
0.5410	0.632045
0.5420	0.632278
0.5430	0.632510
0.5440	0.632742
0.5450	0.632975
0.5460	0.633207
0.5470	0.633439
0.5480	0.633671
0.5490	0.633904
0.5500	0.634136
0.5510	0.634368
0.5520	0.634599
0.5530	0.634831
0.5540	0.635063
0.5550	0.635295
0.5560	0.635527
0.5570	0.635758
0.5580	0.635990
0.5590	0.636221
0.5600	0.636453
0.5610	0.636684
0.5620	0.636915
0.5630	0.637146
0.5640	0.637378
0.5650	0.637609
0.5660	0.637840
0.5670	0.638071
0.5680	0.638302
0.5690	0.638532
0.5700	0.638763
0.5710	0.638994
0.5720	0.639225
0.5730	0.639455
0.5740	0.639686
0.5750	0.639916
0.5760	0.640146
0.5770	0.640377
0.5780	0.640607
0.5790	0.640837
0.5800	0.641067
0.5810	0.641297
0.5820	0.641527
0.5830	0.641757
0.5840	0.641987
0.5850	0.642217
0.5860	0.642447
0.5870	0.642677
0.5880	0.642906
0.5890	0.643136
0.5900	0.643365
0.5910	0.643595
0.5920	0.643824
0.5930	0.644053
0.5940	0.644282
0.5950	0.644512
0.5960	0.644741
0.5970	0.644970
0.5980	0.645199
0.5990	0.645427
0.6000	0.645656
0.6010	0.645885
0.6020	0.646114
0.6030	0.646342
0.6040	0.646571
0.6050	0.646799
0.6060	0.647028
0.6070	0.647256
0.6080	0.647484
0.6090	0.647713
0.6100	0.647941
0.6110	0.648169
0.6120	0.648397
0.6130	0.648625
0.6140	0.648853
0.6150	0.649081
0.6160	0.649308
0.6170	0.649536
0.6180	0.649764
0.6190	0.649991
0.6200	0.650219
0.6210	0.650446
0.6220	0.650673
0.6230	0.650901
0.6240	0.651128
0.6250	0.651355
0.6260	0.651582
0.6270	0.651809
0.6280	0.652036
0.6290	0.652263
0.6300	0.652489
0.6310	0.652716
0.6320	0.652943
0.6330	0.653169
0.6340	0.653396
0.6350	0.653622
0.6360	0.653849
0.6370	0.654075
0.6380	0.654301
0.6390	0.654527
0.6400	0.654753
0.6410	0.654979
0.6420	0.655205
0.6430	0.655431
0.6440	0.655657
0.6450	0.655883
0.6460	0.656109
0.6470	0.656334
0.6480	0.656560
0.6490	0.656785
0.6500	0.657010
0.6510	0.657236
0.6520	0.657461
0.6530	0.657686
0.6540	0.657911
0.6550	0.658136
0.6560	0.658361
0.6570	0.658586
0.6580	0.658811
0.6590	0.659036
0.6600	0.659260
0.6610	0.659485
0.6620	0.659710
0.6630	0.659934
0.6640	0.660158
0.6650	0.660383
0.6660	0.660607
0.6670	0.660831
0.6680	0.661055
0.6690	0.661279
0.6700	0.661503
0.6710	0.661727
0.6720	0.661951
0.6730	0.662175
0.6740	0.662398
0.6750	0.662622
0.6760	0.662845
0.6770	0.663069
0.6780	0.663292
0.6790	0.663515
0.6800	0.663739
0.6810	0.663962
0.6820	0.664185
0.6830	0.664408
0.6840	0.664631
0.6850	0.664854
0.6860	0.665077
0.6870	0.665299
0.6880	0.665522
0.6890	0.665744
0.6900	0.665967
0.6910	0.666189
0.6920	0.666412
0.6930	0.666634
0.6940	0.666856
0.6950	0.667078
0.6960	0.667300
0.6970	0.667522
0.6980	0.667744
0.6990	0.667966
0.7000	0.668188
0.7010	0.668409
0.7020	0.668631
0.7030	0.668853
0.7040	0.669074
0.7050	0.669295
0.7060	0.669517
0.7070	0.669738
0.7080	0.669959
0.7090	0.670180
0.7100	0.670401
0.7110	0.670622
0.7120	0.670843
0.7130	0.671064
0.7140	0.671284
0.7150	0.671505
0.7160	0.671726
0.7170	0.671946
0.7180	0.672166
0.7190	0.672387
0.7200	0.672607
0.7210	0.672827
0.7220	0.673047
0.7230	0.673267
0.7240	0.673487
0.7250	0.673707
0.7260	0.673927
0.7270	0.674147
0.7280	0.674366
0.7290	0.674586
0.7300	0.674805
0.7310	0.675025
0.7320	0.675244
0.7330	0.675463
0.7340	0.675682
0.7350	0.675902
0.7360	0.676121
0.7370	0.676339
0.7380	0.676558
0.7390	0.676777
0.7400	0.676996
0.7410	0.677214
0.7420	0.677433
0.7430	0.677652
0.7440	0.677870
0.7450	0.678088
0.7460	0.678306
0.7470	0.678525
0.7480	0.678743
0.7490	0.678961
0.7500	0.679179
0.7510	0.679397
0.7520	0.679614
0.7530	0.679832
0.7540	0.680050
0.7550	0.680267
0.7560	0.680485
0.7570	0.680702
0.7580	0.680919
0.7590	0.681137
0.7600	0.681354
0.7610	0.681571
0.7620	0.681788
0.7630	0.682005
0.7640	0.682222
0.7650	0.682438
0.7660	0.682655
0.7670	0.682872
0.7680	0.683088
0.7690	0.683305
0.7700	0.683521
0.7710	0.683737
0.7720	0.683953
0.7730	0.684169
0.7740	0.684386
0.7750	0.684602
0.7760	0.684817
0.7770	0.685033
0.7780	0.685249
0.7790	0.685465
0.7800	0.685680
0.7810	0.685896
0.7820	0.686111
0.7830	0.686326
0.7840	0.686542
0.7850	0.686757
0.7860	0.686972
0.7870	0.687187
0.7880	0.687402
0.7890	0.687617
0.7900	0.687831
0.7910	0.688046
0.7920	0.688261
0.7930	0.688475
0.7940	0.688690
0.7950	0.688904
0.7960	0.689118
0.7970	0.689332
0.7980	0.689546
0.7990	0.689761
0.8000	0.689974
0.8010	0.690188
0.8020	0.690402
0.8030	0.690616
0.8040	0.690829
0.8050	0.691043
0.8060	0.691256
0.8070	0.691470
0.8080	0.691683
0.8090	0.691896
0.8100	0.692110
0.8110	0.692323
0.8120	0.692536
0.8130	0.692748
0.8140	0.692961
0.8150	0.693174
0.8160	0.693387
0.8170	0.693599
0.8180	0.693812
0.8190	0.694024
0.8200	0.694236
0.8210	0.694449
0.8220	0.694661
0.8230	0.694873
0.8240	0.695085
0.8250	0.695297
0.8260	0.695508
0.8270	0.695720
0.8280	0.695932
0.8290	0.696143
0.8300	0.696355
0.8310	0.696566
0.8320	0.696778
0.8330	0.696989
0.8340	0.697200
0.8350	0.697411
0.8360	0.697622
0.8370	0.697833
0.8380	0.698044
0.8390	0.698255
0.8400	0.698465
0.8410	0.698676
0.8420	0.698886
0.8430	0.699097
0.8440	0.699307
0.8450	0.699517
0.8460	0.699727
0.8470	0.699937
0.8480	0.700147
0.8490	0.700357
0.8500	0.700567
0.8510	0.700777
0.8520	0.700987
0.8530	0.701196
0.8540	0.701406
0.8550	0.701615
0.8560	0.701824
0.8570	0.702033
0.8580	0.702243
0.8590	0.702452
0.8600	0.702661
0.8610	0.702870
0.8620	0.703078
0.8630	0.703287
0.8640	0.703496
0.8650	0.703704
0.8660	0.703913
0.8670	0.704121
0.8680	0.704329
0.8690	0.704538
0.8700	0.704746
0.8710	0.704954
0.8720	0.705162
0.8730	0.705370
0.8740	0.705577
0.8750	0.705785
0.8760	0.705993
0.8770	0.706200
0.8780	0.706408
0.8790	0.706615
0.8800	0.706822
0.8810	0.707029
0.8820	0.707236
0.8830	0.707444
0.8840	0.707650
0.8850	0.707857
0.8860	0.708064
0.8870	0.708271
0.8880	0.708477
0.8890	0.708684
0.8900	0.708890
0.8910	0.709096
0.8920	0.709303
0.8930	0.709509
0.8940	0.709715
0.8950	0.709921
0.8960	0.710127
0.8970	0.710333
0.8980	0.710538
0.8990	0.710744
0.9000	0.710950
0.9010	0.711155
0.9020	0.711360
0.9030	0.711566
0.9040	0.711771
0.9050	0.711976
0.9060	0.712181
0.9070	0.712386
0.9080	0.712591
0.9090	0.712795
0.9100	0.713000
0.9110	0.713205
0.9120	0.713409
0.9130	0.713614
0.9140	0.713818
0.9150	0.714022
0.9160	0.714226
0.9170	0.714430
0.9180	0.714634
0.9190	0.714838
0.9200	0.715042
0.9210	0.715246
0.9220	0.715449
0.9230	0.715653
0.9240	0.715856
0.9250	0.716060
0.9260	0.716263
0.9270	0.716466
0.9280	0.716669
0.9290	0.716872
0.9300	0.717075
0.9310	0.717278
0.9320	0.717481
0.9330	0.717684
0.9340	0.717886
0.9350	0.718089
0.9360	0.718291
0.9370	0.718493
0.9380	0.718695
0.9390	0.718898
0.9400	0.719100
0.9410	0.719302
0.9420	0.719503
0.9430	0.719705
0.9440	0.719907
0.9450	0.720109
0.9460	0.720310
0.9470	0.720511
0.9480	0.720713
0.9490	0.720914
0.9500	0.721115
0.9510	0.721316
0.9520	0.721517
0.9530	0.721718
0.9540	0.721919
0.9550	0.722120
0.9560	0.722320
0.9570	0.722521
0.9580	0.722721
0.9590	0.722922
0.9600	0.723122
0.9610	0.723322
0.9620	0.723522
0.9630	0.723722
0.9640	0.723922
0.9650	0.724122
0.9660	0.724321
0.9670	0.724521
0.9680	0.724721
0.9690	0.724920
0.9700	0.725119
0.9710	0.725319
0.9720	0.725518
0.9730	0.725717
0.9740	0.725916
0.9750	0.726115
0.9760	0.726314
0.9770	0.726513
0.9780	0.726711
0.9790	0.726910
0.9800	0.727108
0.9810	0.727307
0.9820	0.727505
0.9830	0.727703
0.9840	0.727901
0.9850	0.728099
0.9860	0.728297
0.9870	0.728495
0.9880	0.728693
0.9890	0.728890
0.9900	0.729088
0.9910	0.729285
0.9920	0.729483
0.9930	0.729680
0.9940	0.729877
0.9950	0.730074
0.9960	0.730271
0.9970	0.730468
0.9980	0.730665
0.9990	0.730862
1.0000	0.731059
1.0010	0.731255
1.0020	0.731452
1.0030	0.731648
1.0040	0.731844
1.0050	0.732041
1.0060	0.732237
1.0070	0.732433
1.0080	0.732629
1.0090	0.732824
1.0100	0.733020
1.0110	0.733216
1.0120	0.733411
1.0130	0.733607
1.0140	0.733802
1.0150	0.733998
1.0160	0.734193
1.0170	0.734388
1.0180	0.734583
1.0190	0.734778
1.0200	0.734973
1.0210	0.735167
1.0220	0.735362
1.0230	0.735557
1.0240	0.735751
1.0250	0.735945
1.0260	0.736140
1.0270	0.736334
1.0280	0.736528
1.0290	0.736722
1.0300	0.736916
1.0310	0.737110
1.0320	0.737303
1.0330	0.737497
1.0340	0.737691
1.0350	0.737884
1.0360	0.738077
1.0370	0.738271
1.0380	0.738464
1.0390	0.738657
1.0400	0.738850
1.0410	0.739043
1.0420	0.739236
1.0430	0.739428
1.0440	0.739621
1.0450	0.739814
1.0460	0.740006
1.0470	0.740198
1.0480	0.740391
1.0490	0.740583
1.0500	0.740775
1.0510	0.740967
1.0520	0.741159
1.0530	0.741351
1.0540	0.741542
1.0550	0.741734
1.0560	0.741925
1.0570	0.742117
1.0580	0.742308
1.0590	0.742499
1.0600	0.742691
1.0610	0.742882
1.0620	0.743073
1.0630	0.743263
1.0640	0.743454
1.0650	0.743645
1.0660	0.743835
1.0670	0.744026
1.0680	0.744216
1.0690	0.744407
1.0700	0.744597
1.0710	0.744787
1.0720	0.744977
1.0730	0.745167
1.0740	0.745357
1.0750	0.745547
1.0760	0.745736
1.0770	0.745926
1.0780	0.746115
1.0790	0.746305
1.0800	0.746494
1.0810	0.746683
1.0820	0.746872
1.0830	0.747061
1.0840	0.747250
1.0850	0.747439
1.0860	0.747628
1.0870	0.747816
1.0880	0.748005
1.0890	0.748193
1.0900	0.748382
1.0910	0.748570
1.0920	0.748758
1.0930	0.748946
1.0940	0.749134
1.0950	0.749322
1.0960	0.749510
1.0970	0.749698
1.0980	0.749885
1.0990	0.750073
1.1000	0.750260
1.1010	0.750447
1.1020	0.750635
1.1030	0.750822
1.1040	0.751009
1.1050	0.751196
1.1060	0.751383
1.1070	0.751569
1.1080	0.751756
1.1090	0.751943
1.1100	0.752129
1.1110	0.752315
1.1120	0.752502
1.1130	0.752688
1.1140	0.752874
1.1150	0.753060
1.1160	0.753246
1.1170	0.753432
1.1180	0.753618
1.1190	0.753803
1.1200	0.753989
1.1210	0.754174
1.1220	0.754360
1.1230	0.754545
1.1240	0.754730
1.1250	0.754915
1.1260	0.755100
1.1270	0.755285
1.1280	0.755470
1.1290	0.755654
1.1300	0.755839
1.1310	0.756023
1.1320	0.756208
1.1330	0.756392
1.1340	0.756576
1.1350	0.756760
1.1360	0.756944
1.1370	0.757128
1.1380	0.757312
1.1390	0.757496
1.1400	0.757680
1.1410	0.757863
1.1420	0.758047
1.1430	0.758230
1.1440	0.758413
1.1450	0.758596
1.1460	0.758780
1.1470	0.758963
1.1480	0.759145
1.1490	0.759328
1.1500	0.759511
1.1510	0.759694
1.1520	0.759876
1.1530	0.760058
1.1540	0.760241
1.1550	0.760423
1.1560	0.760605
1.1570	0.760787
1.1580	0.760969
1.1590	0.761151
1.1600	0.761333
1.1610	0.761514
1.1620	0.761696
1.1630	0.761877
1.1640	0.762059
1.1650	0.762240
1.1660	0.762421
1.1670	0.762602
1.1680	0.762783
1.1690	0.762964
1.1700	0.763145
1.1710	0.763326
1.1720	0.763506
1.1730	0.763687
1.1740	0.763867
